ENVI
; this file was created using PlantCV version 3.14.3+2047.g74299f56
; original file: ./img/training_hyper_burk.raw
interleave = bil
samples = 250
lines = 50
bands = 978
data type = 4
wavelength units = nm
default bands = {180,274,541}
wavelength = {
365.534,
366.171,
366.808,
367.445,
368.082,
368.719,
369.356,
369.993,
370.63,
371.267,
371.904,
372.541,
373.178,
373.815,
374.452,
375.089,
375.726,
376.363,
377.0,
377.637,
378.274,
378.911,
379.548,
380.185,
380.822,
381.459,
382.096,
382.733,
383.37,
384.007,
384.644,
385.281,
385.918,
386.555,
387.192,
387.829,
388.466,
389.103,
389.74,
390.377,
391.014,
391.651,
392.288,
392.925,
393.562,
394.199,
394.836,
395.473,
396.11,
396.746,
397.383,
398.02,
398.657,
399.294,
399.931,
400.568,
401.205,
401.842,
402.479,
403.116,
403.753,
404.39,
405.027,
405.664,
406.301,
406.938,
407.575,
408.212,
408.849,
409.486,
410.123,
410.76,
411.397,
412.034,
412.671,
413.308,
413.945,
414.582,
415.219,
415.856,
416.493,
417.13,
417.767,
418.404,
419.041,
419.678,
420.315,
420.952,
421.589,
422.226,
422.863,
423.5,
424.137,
424.774,
425.411,
426.048,
426.685,
427.322,
427.959,
428.596,
429.233,
429.87,
430.507,
431.144,
431.781,
432.418,
433.055,
433.692,
434.329,
434.966,
435.603,
436.24,
436.877,
437.514,
438.151,
438.788,
439.425,
440.062,
440.699,
441.336,
441.973,
442.61,
443.247,
443.884,
444.521,
445.158,
445.795,
446.432,
447.069,
447.706,
448.343,
448.98,
449.617,
450.254,
450.891,
451.528,
452.165,
452.802,
453.439,
454.076,
454.713,
455.35,
455.987,
456.624,
457.261,
457.898,
458.535,
459.172,
459.809,
460.446,
461.083,
461.72,
462.357,
462.994,
463.631,
464.268,
464.905,
465.542,
466.179,
466.816,
467.453,
468.09,
468.727,
469.364,
470.001,
470.638,
471.275,
471.912,
472.549,
473.186,
473.823,
474.46,
475.097,
475.734,
476.371,
477.008,
477.645,
478.282,
478.919,
479.556,
480.193,
480.83,
481.467,
482.104,
482.741,
483.378,
484.015,
484.652,
485.289,
485.926,
486.563,
487.2,
487.837,
488.474,
489.111,
489.748,
490.385,
491.022,
491.659,
492.296,
492.933,
493.57,
494.207,
494.844,
495.481,
496.118,
496.755,
497.392,
498.029,
498.666,
499.303,
499.94,
500.577,
501.214,
501.851,
502.488,
503.125,
503.762,
504.399,
505.036,
505.673,
506.31,
506.947,
507.584,
508.221,
508.858,
509.495,
510.132,
510.769,
511.406,
512.043,
512.68,
513.317,
513.954,
514.591,
515.228,
515.865,
516.502,
517.139,
517.776,
518.413,
519.05,
519.687,
520.324,
520.961,
521.598,
522.235,
522.872,
523.509,
524.146,
524.783,
525.42,
526.057,
526.694,
527.331,
527.968,
528.605,
529.242,
529.879,
530.516,
531.153,
531.79,
532.427,
533.064,
533.701,
534.338,
534.975,
535.612,
536.249,
536.886,
537.523,
538.16,
538.797,
539.434,
540.07,
540.707,
541.344,
541.981,
542.618,
543.255,
543.892,
544.529,
545.166,
545.803,
546.44,
547.077,
547.714,
548.351,
548.988,
549.625,
550.262,
550.899,
551.536,
552.173,
552.81,
553.447,
554.084,
554.721,
555.358,
555.995,
556.632,
557.269,
557.906,
558.543,
559.18,
559.817,
560.454,
561.091,
561.728,
562.365,
563.002,
563.639,
564.276,
564.913,
565.55,
566.187,
566.824,
567.461,
568.098,
568.735,
569.372,
570.009,
570.646,
571.283,
571.92,
572.557,
573.194,
573.831,
574.468,
575.105,
575.742,
576.379,
577.016,
577.653,
578.29,
578.927,
579.564,
580.201,
580.838,
581.475,
582.112,
582.749,
583.386,
584.023,
584.66,
585.297,
585.934,
586.571,
587.208,
587.845,
588.482,
589.119,
589.756,
590.393,
591.03,
591.667,
592.304,
592.941,
593.578,
594.215,
594.852,
595.489,
596.126,
596.763,
597.4,
598.037,
598.674,
599.311,
599.948,
600.585,
601.222,
601.859,
602.496,
603.133,
603.77,
604.407,
605.044,
605.681,
606.318,
606.955,
607.592,
608.229,
608.866,
609.503,
610.14,
610.777,
611.414,
612.051,
612.688,
613.325,
613.962,
614.599,
615.236,
615.873,
616.51,
617.147,
617.784,
618.421,
619.058,
619.695,
620.332,
620.969,
621.606,
622.243,
622.88,
623.517,
624.154,
624.791,
625.428,
626.065,
626.702,
627.339,
627.976,
628.613,
629.25,
629.887,
630.524,
631.161,
631.798,
632.435,
633.072,
633.709,
634.346,
634.983,
635.62,
636.257,
636.894,
637.531,
638.168,
638.805,
639.442,
640.079,
640.716,
641.353,
641.99,
642.627,
643.264,
643.901,
644.538,
645.175,
645.812,
646.449,
647.086,
647.723,
648.36,
648.997,
649.634,
650.271,
650.908,
651.545,
652.182,
652.819,
653.456,
654.093,
654.73,
655.367,
656.004,
656.641,
657.278,
657.915,
658.552,
659.189,
659.826,
660.463,
661.1,
661.737,
662.374,
663.011,
663.648,
664.285,
664.922,
665.559,
666.196,
666.833,
667.47,
668.107,
668.744,
669.381,
670.018,
670.655,
671.292,
671.929,
672.566,
673.203,
673.84,
674.477,
675.114,
675.751,
676.388,
677.025,
677.662,
678.299,
678.936,
679.573,
680.21,
680.847,
681.484,
682.121,
682.757,
683.394,
684.031,
684.668,
685.305,
685.942,
686.579,
687.216,
687.853,
688.49,
689.127,
689.764,
690.401,
691.038,
691.675,
692.312,
692.949,
693.586,
694.223,
694.86,
695.497,
696.134,
696.771,
697.408,
698.045,
698.682,
699.319,
699.956,
700.593,
701.23,
701.867,
702.504,
703.141,
703.778,
704.415,
705.052,
705.689,
706.326,
706.963,
707.6,
708.237,
708.874,
709.511,
710.148,
710.785,
711.422,
712.059,
712.696,
713.333,
713.97,
714.607,
715.244,
715.881,
716.518,
717.155,
717.792,
718.429,
719.066,
719.703,
720.34,
720.977,
721.614,
722.251,
722.888,
723.525,
724.162,
724.799,
725.436,
726.073,
726.71,
727.347,
727.984,
728.621,
729.258,
729.895,
730.532,
731.169,
731.806,
732.443,
733.08,
733.717,
734.354,
734.991,
735.628,
736.265,
736.902,
737.539,
738.176,
738.813,
739.45,
740.087,
740.724,
741.361,
741.998,
742.635,
743.272,
743.909,
744.546,
745.183,
745.82,
746.457,
747.094,
747.731,
748.368,
749.005,
749.642,
750.279,
750.916,
751.553,
752.19,
752.827,
753.464,
754.101,
754.738,
755.375,
756.012,
756.649,
757.286,
757.923,
758.56,
759.197,
759.834,
760.471,
761.108,
761.745,
762.382,
763.019,
763.656,
764.293,
764.93,
765.567,
766.204,
766.841,
767.478,
768.115,
768.752,
769.389,
770.026,
770.663,
771.3,
771.937,
772.574,
773.211,
773.848,
774.485,
775.122,
775.759,
776.396,
777.033,
777.67,
778.307,
778.944,
779.581,
780.218,
780.855,
781.492,
782.129,
782.766,
783.403,
784.04,
784.677,
785.314,
785.951,
786.588,
787.225,
787.862,
788.499,
789.136,
789.773,
790.41,
791.047,
791.684,
792.321,
792.958,
793.595,
794.232,
794.869,
795.506,
796.143,
796.78,
797.417,
798.054,
798.691,
799.328,
799.965,
800.602,
801.239,
801.876,
802.513,
803.15,
803.787,
804.424,
805.061,
805.698,
806.335,
806.972,
807.609,
808.246,
808.883,
809.52,
810.157,
810.794,
811.431,
812.068,
812.705,
813.342,
813.979,
814.616,
815.253,
815.89,
816.527,
817.164,
817.801,
818.438,
819.075,
819.712,
820.349,
820.986,
821.623,
822.26,
822.897,
823.534,
824.171,
824.808,
825.445,
826.081,
826.718,
827.355,
827.992,
828.629,
829.266,
829.903,
830.54,
831.177,
831.814,
832.451,
833.088,
833.725,
834.362,
834.999,
835.636,
836.273,
836.91,
837.547,
838.184,
838.821,
839.458,
840.095,
840.732,
841.369,
842.006,
842.643,
843.28,
843.917,
844.554,
845.191,
845.828,
846.465,
847.102,
847.739,
848.376,
849.013,
849.65,
850.287,
850.924,
851.561,
852.198,
852.835,
853.472,
854.109,
854.746,
855.383,
856.02,
856.657,
857.294,
857.931,
858.568,
859.205,
859.842,
860.479,
861.116,
861.753,
862.39,
863.027,
863.664,
864.301,
864.938,
865.575,
866.212,
866.849,
867.486,
868.123,
868.76,
869.397,
870.034,
870.671,
871.308,
871.945,
872.582,
873.219,
873.856,
874.493,
875.13,
875.767,
876.404,
877.041,
877.678,
878.315,
878.952,
879.589,
880.226,
880.863,
881.5,
882.137,
882.774,
883.411,
884.048,
884.685,
885.322,
885.959,
886.596,
887.233,
887.87,
888.507,
889.144,
889.781,
890.418,
891.055,
891.692,
892.329,
892.966,
893.603,
894.24,
894.877,
895.514,
896.151,
896.788,
897.425,
898.062,
898.699,
899.336,
899.973,
900.61,
901.247,
901.884,
902.521,
903.158,
903.795,
904.432,
905.069,
905.706,
906.343,
906.98,
907.617,
908.254,
908.891,
909.528,
910.165,
910.802,
911.439,
912.076,
912.713,
913.35,
913.987,
914.624,
915.261,
915.898,
916.535,
917.172,
917.809,
918.446,
919.083,
919.72,
920.357,
920.994,
921.631,
922.268,
922.905,
923.542,
924.179,
924.816,
925.453,
926.09,
926.727,
927.364,
928.001,
928.638,
929.275,
929.912,
930.549,
931.186,
931.823,
932.46,
933.097,
933.734,
934.371,
935.008,
935.645,
936.282,
936.919,
937.556,
938.193,
938.83,
939.467,
940.104,
940.741,
941.378,
942.015,
942.652,
943.289,
943.926,
944.563,
945.2,
945.837,
946.474,
947.111,
947.748,
948.385,
949.022,
949.659,
950.296,
950.933,
951.57,
952.207,
952.844,
953.481,
954.118,
954.755,
955.392,
956.029,
956.666,
957.303,
957.94,
958.577,
959.214,
959.851,
960.488,
961.125,
961.762,
962.399,
963.036,
963.673,
964.31,
964.947,
965.584,
966.221,
966.858,
967.495,
968.132,
968.769,
969.405,
970.042,
970.679,
971.316,
971.953,
972.59,
973.227,
973.864,
974.501,
975.138,
975.775,
976.412,
977.049,
977.686,
978.323,
978.96,
979.597,
980.234,
980.871,
981.508,
982.145,
982.782,
983.419,
984.056,
984.693,
985.33,
985.967,
986.604,
987.241,
987.878
}